*RAS_DATA_START
*RAS_HEADER_START
*DISP_FMT_X "%.2f"
*DISP_FMT_Y "%.0f"
*DISP_FULLSCALE "143900.0000000000"
*DISP_LINE_COLOR "255.0000000000"
*DISP_LINE_STYLE "0.0000000000"
*DISP_LINE_WIDTH "0.2500000000"
*DISP_NOTE "測定データ-9"
*DISP_OFFSET_Y "0.0000000000"
*DISP_PEAKSEARCH_UNIT_Y "cps"
*DISP_RANGE_BOTTOM "0.0000000000"
*DISP_RANGE_LEFT "5.0000000000"
*DISP_RANGE_LOGCUTOFF "0.0100000000"
*DISP_RANGE_RIGHT "90.0000000000"
*DISP_RANGE_TOP "143900.0000000000"
*DISP_SCALE_MODE_Y "0.0000000000"
*DISP_TAB_NAME "2θ/θ"
*DISP_TITLE_Y "強度"
*DISP_UNIT_Y "cps"
*DISP_WINDOW_NAME "MSG_MACROENGINE"
*FILE_COMMENT " "
*FILE_MD5 ""
*FILE_MEMO " "
*FILE_OPERATOR "User1"
*FILE_SAMPLE " "
*FILE_TYPE "RAS_RAW"
*FILE_USERGROUP "システムユーザー"
*FILE_VERSION "1.0000000000"
*HW_ATTACHMENT_ID "ATT0025"
*HW_ATTACHMENT_NAME "標準|Standard"
*HW_COUNTER_ID-0 "CUT0041"
*HW_COUNTER_ID-1 "CUT0020"
*HW_COUNTER_ID-2 ""
*HW_COUNTER_ID-3 "CSL0021"
*HW_COUNTER_ID-4 "CMC0021"
*HW_COUNTER_NAME-0 "D/teX Ultra 250|D/teX Ultra 250"
*HW_COUNTER_NAME-1 "None|None"
*HW_COUNTER_NAME-2 ""
*HW_COUNTER_NAME-3 "BBM|BBM"
*HW_COUNTER_NAME-4 "検出器モノクロメータ|Detector monochromator"
*HW_COUNTER_SELECT_NAME "D/teX Ultra 250|D/teX Ultra 250"
*HW_GONIOMETER_ID "GON0023"
*HW_GONIOMETER_NAME "SmartLab|SmartLab"
*HW_GONIOMETER_RADIUS-0 "90.0"
*HW_GONIOMETER_RADIUS-1 "114.0"
*HW_GONIOMETER_RADIUS-2 "190.0"
*HW_GONIOMETER_RADIUS-3 "300.0"
*HW_GONIOMETER_RADIUS-4 "187.0"
*HW_GONIOMETER_RADIUS-5 "300.0"
*HW_GONIOMETER_RADIUS-6 "113.0"
*HW_GONIOMETER_RADIUS-7 "331.0"
*HW_I_OPT_ID-0 "CBO0023"
*HW_I_OPT_ID-1 "ICR0023"
*HW_I_OPT_ID-2 "ISL0021"
*HW_I_OPT_ID-3 "ISO0021"
*HW_I_OPT_ID-4 "IAD0021"
*HW_I_OPT_ID-5 "IPR0001"
*HW_I_OPT_NAME-0 "オープン-BBユニット|Open-BB unit"
*HW_I_OPT_NAME-1 "標準入射光学ユニット|Standard incident optical unit"
*HW_I_OPT_NAME-2 "標準入射スリットボックス|Standard incident slit box"
*HW_I_OPT_NAME-3 "入射平行スリット|Incident parallel slit"
*HW_I_OPT_NAME-4 "長手制限スリット|Length limiting slit"
*HW_I_OPT_NAME-5 "None|None"
*HW_R_ATTENUATER_AUTOMODE "0"
*HW_R_OPT_ID-0 "RSS0021"
*HW_R_OPT_ID-1 "RCR0023"
*HW_R_OPT_ID-2 "RSO0021"
*HW_R_OPT_ID-3 "RRS0021"
*HW_R_OPT_ID-4 "ATN0021"
*HW_R_OPT_ID-5 "RFL0021"
*HW_R_OPT_ID-6 "RAD0021"
*HW_R_OPT_NAME-0 "標準受光スリットボックス1|Standard receiving slit box # 1"
*HW_R_OPT_NAME-1 "標準受光光学ユニット1|Standard receiving unit # 1"
*HW_R_OPT_NAME-2 "標準受光光学ユニット2|Standard receiving optical unit # 2"
*HW_R_OPT_NAME-3 "標準受光スリットボックス2|Standard receiving slit box # 2"
*HW_R_OPT_NAME-4 "標準アッテネータ|Standard Attenuator"
*HW_R_OPT_NAME-5 "Cu Kβ|Cu K-beta"
*HW_R_OPT_NAME-6 "調整用受光スリット|Alignment receiving slit"
*HW_SAMPLE_HOLDER_ID "SMP0023"
*HW_SAMPLE_HOLDER_NAME "標準Zステージ|Standard Z stage"
*HW_XG_CURRENT_MAX "50"
*HW_XG_CURRENT_MIN "2"
*HW_XG_CURRENT_RESOLUTION "2"
*HW_XG_CURRENT_UNIT "mA"
*HW_XG_FOCUS "1mm x 10mm"
*HW_XG_FOCUS_TYPE "Normal"
*HW_XG_ID ""
*HW_XG_NAME "3kW 封入管(ID:1200)|3kW Sealed tube(ID:1200)"
*HW_XG_TARGET_ATOMIC_NUMBER "29.0000000000"
*HW_XG_TARGET_NAME "Cu"
*HW_XG_TYPE "Hermetic"
*HW_XG_VOLTAGE_MAX "60"
*HW_XG_VOLTAGE_MIN "20"
*HW_XG_VOLTAGE_RESOLUTION "2"
*HW_XG_VOLTAGE_UNIT "kV"
*HW_XG_WATT_MAX "2"
*HW_XG_WATT_UNIT "kW"
*HW_XG_WAVE_LENGTH_ALPHA1 "1.540593"
*HW_XG_WAVE_LENGTH_ALPHA2 "1.544414"
*HW_XG_WAVE_LENGTH_BETA "1.392250"
*MEAS_COND_AXIS_NAME-0 "2θ/θ"
*MEAS_COND_AXIS_NAME-1 "2θ"
*MEAS_COND_AXIS_NAME-2 "ω"
*MEAS_COND_AXIS_NAME-3 "Z"
*MEAS_COND_AXIS_NAME-4 "2θ/ω"
*MEAS_COND_AXIS_NAME-5 "θs"
*MEAS_COND_AXIS_NAME-6 "θd"
*MEAS_COND_AXIS_NAME-7 "Ts"
*MEAS_COND_AXIS_NAME-8 "CBO選択スリット"
*MEAS_COND_AXIS_NAME-9 "M"
*MEAS_COND_AXIS_NAME-10 "入射平行スリット"
*MEAS_COND_AXIS_NAME-11 "入射スリット"
*MEAS_COND_AXIS_NAME-12 ""
*MEAS_COND_AXIS_NAME-13 "Zs"
*MEAS_COND_AXIS_NAME-14 "入射光学素子"
*MEAS_COND_AXIS_NAME-15 "長手制限スリット"
*MEAS_COND_AXIS_NAME-16 "センタースリット"
*MEAS_COND_AXIS_NAME-17 "フィルター"
*MEAS_COND_AXIS_NAME-18 "受光スリット1"
*MEAS_COND_AXIS_NAME-19 "受光スリット2"
*MEAS_COND_AXIS_NAME-20 "受光光学素子"
*MEAS_COND_AXIS_NAME-21 "受光平行スリット"
*MEAS_COND_AXIS_NAME-22 "調整用受光スリット"
*MEAS_COND_AXIS_NAME-23 ""
*MEAS_COND_AXIS_NAME-24 ""
*MEAS_COND_AXIS_NAME-25 "Zd"
*MEAS_COND_AXIS_NAME-26 "アッテネータ"
*MEAS_COND_AXIS_NAME-27 "検出器モノクロメータ"
*MEAS_COND_AXIS_NAME-28 "モノクロメータスリット"
*MEAS_COND_AXIS_NAME-29 "プライマリビーム"
*MEAS_COND_AXIS_NAME-30 "PHA"
*MEAS_COND_AXIS_NAME_INTERNAL-0 "TwoThetaTheta"
*MEAS_COND_AXIS_NAME_INTERNAL-1 "TwoTheta"
*MEAS_COND_AXIS_NAME_INTERNAL-2 "Omega"
*MEAS_COND_AXIS_NAME_INTERNAL-3 "Z"
*MEAS_COND_AXIS_NAME_INTERNAL-4 "TwoThetaOmega"
*MEAS_COND_AXIS_NAME_INTERNAL-5 "ThetaS"
*MEAS_COND_AXIS_NAME_INTERNAL-6 "ThetaD"
*MEAS_COND_AXIS_NAME_INTERNAL-7 "Ts"
*MEAS_COND_AXIS_NAME_INTERNAL-8 "CBO"
*MEAS_COND_AXIS_NAME_INTERNAL-9 "CBO-M"
*MEAS_COND_AXIS_NAME_INTERNAL-10 "IncidentSollerSlit"
*MEAS_COND_AXIS_NAME_INTERNAL-11 "IncidentSlitBox"
*MEAS_COND_AXIS_NAME_INTERNAL-12 "IncidentSlitBox-_Axis"
*MEAS_COND_AXIS_NAME_INTERNAL-13 "Zs"
*MEAS_COND_AXIS_NAME_INTERNAL-14 "IncidentMonochromator"
*MEAS_COND_AXIS_NAME_INTERNAL-15 "IncidentAxdSlit"
*MEAS_COND_AXIS_NAME_INTERNAL-16 "CenterSlit"
*MEAS_COND_AXIS_NAME_INTERNAL-17 "Filter"
*MEAS_COND_AXIS_NAME_INTERNAL-18 "ReceivingSlitBox1"
*MEAS_COND_AXIS_NAME_INTERNAL-19 "ReceivingSlitBox2"
*MEAS_COND_AXIS_NAME_INTERNAL-20 "ReceivingOptics"
*MEAS_COND_AXIS_NAME_INTERNAL-21 "ReceivingSollerSlit"
*MEAS_COND_AXIS_NAME_INTERNAL-22 "ReceivingAxdSlit"
*MEAS_COND_AXIS_NAME_INTERNAL-23 "ReceivingSlitBox1-_Axis"
*MEAS_COND_AXIS_NAME_INTERNAL-24 "ReceivingSlitBox2-_Axis"
*MEAS_COND_AXIS_NAME_INTERNAL-25 "ReceivingSlitBox2-Zd"
*MEAS_COND_AXIS_NAME_INTERNAL-26 "Attenuator"
*MEAS_COND_AXIS_NAME_INTERNAL-27 "CounterMonochromator"
*MEAS_COND_AXIS_NAME_INTERNAL-28 "CounterSlit"
*MEAS_COND_AXIS_NAME_INTERNAL-29 "IncidentPrimary"
*MEAS_COND_AXIS_NAME_INTERNAL-30 "PHA"
*MEAS_COND_AXIS_NAME_MAGICNO-0 "83951616.0000000000"
*MEAS_COND_AXIS_NAME_MAGICNO-1 "268632064.0000000000"
*MEAS_COND_AXIS_NAME_MAGICNO-2 "268500992.0000000000"
*MEAS_COND_AXIS_NAME_MAGICNO-3 "285278208.0000000000"
*MEAS_COND_AXIS_NAME_MAGICNO-4 "83951616.0000000000"
*MEAS_COND_AXIS_NAME_MAGICNO-5 "131072.0000000000"
*MEAS_COND_AXIS_NAME_MAGICNO-6 "131072.0000000000"
*MEAS_COND_AXIS_NAME_MAGICNO-7 "318898176.0000000000"
*MEAS_COND_AXIS_NAME_MAGICNO-8 "20971521.0000000000"
*MEAS_COND_AXIS_NAME_MAGICNO-9 "285343744.0000000000"
*MEAS_COND_AXIS_NAME_MAGICNO-10 "20971521.0000000000"
*MEAS_COND_AXIS_NAME_MAGICNO-11 "22020097.0000000000"
*MEAS_COND_AXIS_NAME_MAGICNO-12 "25165824.0000000000"
*MEAS_COND_AXIS_NAME_MAGICNO-13 "318898176.0000000000"
*MEAS_COND_AXIS_NAME_MAGICNO-14 "1.0000000000"
*MEAS_COND_AXIS_NAME_MAGICNO-15 "20971521.0000000000"
*MEAS_COND_AXIS_NAME_MAGICNO-16 "20971521.0000000000"
*MEAS_COND_AXIS_NAME_MAGICNO-17 "20971521.0000000000"
*MEAS_COND_AXIS_NAME_MAGICNO-18 "23068673.0000000000"
*MEAS_COND_AXIS_NAME_MAGICNO-19 "23068673.0000000000"
*MEAS_COND_AXIS_NAME_MAGICNO-20 "20971521.0000000000"
*MEAS_COND_AXIS_NAME_MAGICNO-21 "20971521.0000000000"
*MEAS_COND_AXIS_NAME_MAGICNO-22 "20971521.0000000000"
*MEAS_COND_AXIS_NAME_MAGICNO-23 "25165824.0000000000"
*MEAS_COND_AXIS_NAME_MAGICNO-24 "25165824.0000000000"
*MEAS_COND_AXIS_NAME_MAGICNO-25 "285343744.0000000000"
*MEAS_COND_AXIS_NAME_MAGICNO-26 "17301505.0000000000"
*MEAS_COND_AXIS_NAME_MAGICNO-27 "20971521.0000000000"
*MEAS_COND_AXIS_NAME_MAGICNO-28 "20971521.0000000000"
*MEAS_COND_AXIS_NAME_MAGICNO-29 "20971521.0000000000"
*MEAS_COND_AXIS_NAME_MAGICNO-30 "0.0000000000"
*MEAS_COND_AXIS_OFFSET-0 "-"
*MEAS_COND_AXIS_OFFSET-1 "0.1576000000"
*MEAS_COND_AXIS_OFFSET-2 "0.3837000000"
*MEAS_COND_AXIS_OFFSET-3 "-"
*MEAS_COND_AXIS_OFFSET-4 "-"
*MEAS_COND_AXIS_OFFSET-5 "0.3837000000"
*MEAS_COND_AXIS_OFFSET-6 "-0.2261000000"
*MEAS_COND_AXIS_OFFSET-7 "-"
*MEAS_COND_AXIS_OFFSET-8 "-"
*MEAS_COND_AXIS_OFFSET-9 "-"
*MEAS_COND_AXIS_OFFSET-10 "-"
*MEAS_COND_AXIS_OFFSET-11 "-"
*MEAS_COND_AXIS_OFFSET-12 "-"
*MEAS_COND_AXIS_OFFSET-13 "-"
*MEAS_COND_AXIS_OFFSET-14 "-"
*MEAS_COND_AXIS_OFFSET-15 "-"
*MEAS_COND_AXIS_OFFSET-16 "-"
*MEAS_COND_AXIS_OFFSET-17 "-"
*MEAS_COND_AXIS_OFFSET-18 "-"
*MEAS_COND_AXIS_OFFSET-19 "-"
*MEAS_COND_AXIS_OFFSET-20 "-"
*MEAS_COND_AXIS_OFFSET-21 "-"
*MEAS_COND_AXIS_OFFSET-22 "-"
*MEAS_COND_AXIS_OFFSET-23 "-"
*MEAS_COND_AXIS_OFFSET-24 "-"
*MEAS_COND_AXIS_OFFSET-25 "-"
*MEAS_COND_AXIS_OFFSET-26 "-"
*MEAS_COND_AXIS_OFFSET-27 "-"
*MEAS_COND_AXIS_OFFSET-28 "-"
*MEAS_COND_AXIS_OFFSET-29 "-"
*MEAS_COND_AXIS_OFFSET-30 "-"
*MEAS_COND_AXIS_POSITION-0 "0.0000000000"
*MEAS_COND_AXIS_POSITION-1 "0.0000000000"
*MEAS_COND_AXIS_POSITION-2 "0.0000000000"
*MEAS_COND_AXIS_POSITION-3 "-0.1000000000"
*MEAS_COND_AXIS_POSITION-4 "0.0000000000"
*MEAS_COND_AXIS_POSITION-5 "0.0000000000"
*MEAS_COND_AXIS_POSITION-6 "0.0000000000"
*MEAS_COND_AXIS_POSITION-7 "0.0000000000"
*MEAS_COND_AXIS_POSITION-8 "BB"
*MEAS_COND_AXIS_POSITION-9 "0.0000000000"
*MEAS_COND_AXIS_POSITION-10 "Soller_slit_5.0deg"
*MEAS_COND_AXIS_POSITION-11 "2/3deg"
*MEAS_COND_AXIS_POSITION-12 "2.2088000000"
*MEAS_COND_AXIS_POSITION-13 "0.3640600000"
*MEAS_COND_AXIS_POSITION-14 "0.0000000000"
*MEAS_COND_AXIS_POSITION-15 "5.0mm"
*MEAS_COND_AXIS_POSITION-16 "None"
*MEAS_COND_AXIS_POSITION-17 "Cu_K-beta"
*MEAS_COND_AXIS_POSITION-18 "20.000mm"
*MEAS_COND_AXIS_POSITION-19 "20.000mm"
*MEAS_COND_AXIS_POSITION-20 "No_unit"
*MEAS_COND_AXIS_POSITION-21 "Soller_slit_5.0deg"
*MEAS_COND_AXIS_POSITION-22 "None"
*MEAS_COND_AXIS_POSITION-23 "20.0000000000"
*MEAS_COND_AXIS_POSITION-24 "20.0000000000"
*MEAS_COND_AXIS_POSITION-25 "0.1487500000"
*MEAS_COND_AXIS_POSITION-26 "Open"
*MEAS_COND_AXIS_POSITION-27 "None"
*MEAS_COND_AXIS_POSITION-28 "None"
*MEAS_COND_AXIS_POSITION-29 "None"
*MEAS_COND_AXIS_POSITION-30 "44.0000000000"
*MEAS_COND_AXIS_UNIT-0 "deg"
*MEAS_COND_AXIS_UNIT-1 "deg"
*MEAS_COND_AXIS_UNIT-2 "deg"
*MEAS_COND_AXIS_UNIT-3 "mm"
*MEAS_COND_AXIS_UNIT-4 "deg"
*MEAS_COND_AXIS_UNIT-5 "deg"
*MEAS_COND_AXIS_UNIT-6 "deg"
*MEAS_COND_AXIS_UNIT-7 "mm"
*MEAS_COND_AXIS_UNIT-8 ""
*MEAS_COND_AXIS_UNIT-9 "pulse"
*MEAS_COND_AXIS_UNIT-10 ""
*MEAS_COND_AXIS_UNIT-11 ""
*MEAS_COND_AXIS_UNIT-12 "mm"
*MEAS_COND_AXIS_UNIT-13 "mm"
*MEAS_COND_AXIS_UNIT-14 ""
*MEAS_COND_AXIS_UNIT-15 ""
*MEAS_COND_AXIS_UNIT-16 ""
*MEAS_COND_AXIS_UNIT-17 ""
*MEAS_COND_AXIS_UNIT-18 ""
*MEAS_COND_AXIS_UNIT-19 ""
*MEAS_COND_AXIS_UNIT-20 ""
*MEAS_COND_AXIS_UNIT-21 ""
*MEAS_COND_AXIS_UNIT-22 ""
*MEAS_COND_AXIS_UNIT-23 "mm"
*MEAS_COND_AXIS_UNIT-24 "mm"
*MEAS_COND_AXIS_UNIT-25 "mm"
*MEAS_COND_AXIS_UNIT-26 ""
*MEAS_COND_AXIS_UNIT-27 ""
*MEAS_COND_AXIS_UNIT-28 ""
*MEAS_COND_AXIS_UNIT-29 ""
*MEAS_COND_AXIS_UNIT-30 "div"
*MEAS_COND_COUNTER_CNTLOSS_CORR "0.0000000000"
*MEAS_COND_COUNTER_PHABASE "44.0000000000"
*MEAS_COND_COUNTER_PHAWINDOW "9.0000000000"
*MEAS_COND_COUNTER_PHA_UNIT "div"
*MEAS_COND_COUNTER_TAUDIFF "0.0000000000"
*MEAS_COND_COUNTER_TAUINT "0.0000000000"
*MEAS_COND_IRRADIATION_MODE "OFF"
*MEAS_COND_IRRADIATION_WIDTH ""
*MEAS_COND_OPT_ATTR "集中法"
*MEAS_COND_OPT_NAME "@集中法"
*MEAS_COND_UNSYMMETRIC_MODE "OFF"
*MEAS_COND_XG_CURRENT "30.0000000000"
*MEAS_COND_XG_VOLTAGE "40.0000000000"
*MEAS_COND_XG_WAVE_TYPE "Ka"
*MEAS_DATA_COUNT "4250.0000000000"
*MEAS_SCAN_AXIS_X "2θ/θ"
*MEAS_SCAN_AXIS_X_INTERNAL "TwoThetaTheta"
*MEAS_SCAN_END_TIME "05/21/21 11:44:19"
*MEAS_SCAN_MODE "CONTINUOUS"
*MEAS_SCAN_MONITOR "0"
*MEAS_SCAN_RESOLUTION_X "0.0002"
*MEAS_SCAN_SPEED "20.0"
*MEAS_SCAN_SPEED_UNIT "deg/min"
*MEAS_SCAN_START "5.0000000000"
*MEAS_SCAN_START_TIME "05/21/21 11:39:29"
*MEAS_SCAN_STEP "0.0200000000"
*MEAS_SCAN_STOP "90.0000000000"
*MEAS_SCAN_UNIT_X "deg"
*MEAS_SCAN_UNIT_Y "counts"
*RAS_HEADER_END
*RAS_INT_START
5.0000 183.0000 1.0000
5.0200 193.0000 1.0000
5.0400 194.0000 1.0000
5.0600 186.0000 1.0000
5.0800 178.0000 1.0000
5.1000 162.0000 1.0000
5.1200 178.0000 1.0000
5.1400 160.0000 1.0000
5.1600 176.0000 1.0000
5.1800 211.0000 1.0000
5.2000 170.0000 1.0000
5.2200 157.0000 1.0000
5.2400 169.0000 1.0000
5.2600 168.0000 1.0000
5.2800 184.0000 1.0000
5.3000 178.0000 1.0000
5.3200 195.0000 1.0000
5.3400 206.0000 1.0000
5.3600 190.0000 1.0000
5.3800 182.0000 1.0000
5.4000 214.0000 1.0000
5.4200 209.0000 1.0000
5.4400 167.0000 1.0000
5.4600 179.0000 1.0000
5.4800 185.0000 1.0000
5.5000 181.0000 1.0000
5.5200 205.0000 1.0000
5.5400 180.0000 1.0000
5.5600 191.0000 1.0000
5.5800 186.0000 1.0000
5.6000 180.0000 1.0000
5.6200 202.0000 1.0000
5.6400 181.0000 1.0000
5.6600 208.0000 1.0000
5.6800 193.0000 1.0000
5.7000 179.0000 1.0000
5.7200 191.0000 1.0000
5.7400 202.0000 1.0000
5.7600 211.0000 1.0000
5.7800 176.0000 1.0000
5.8000 194.0000 1.0000
5.8200 180.0000 1.0000
5.8400 185.0000 1.0000
5.8600 187.0000 1.0000
5.8800 198.0000 1.0000
5.9000 176.0000 1.0000
5.9200 185.0000 1.0000
5.9400 211.0000 1.0000
5.9600 222.0000 1.0000
5.9800 182.0000 1.0000
6.0000 190.0000 1.0000
6.0200 202.0000 1.0000
6.0400 190.0000 1.0000
6.0600 182.0000 1.0000
6.0800 199.0000 1.0000
6.1000 184.0000 1.0000
6.1200 196.0000 1.0000
6.1400 162.0000 1.0000
6.1600 183.0000 1.0000
6.1800 189.0000 1.0000
6.2000 197.0000 1.0000
6.2200 173.0000 1.0000
6.2400 186.0000 1.0000
6.2600 191.0000 1.0000
6.2800 200.0000 1.0000
6.3000 206.0000 1.0000
6.3200 209.0000 1.0000
6.3400 166.0000 1.0000
6.3600 181.0000 1.0000
6.3800 179.0000 1.0000
6.4000 185.0000 1.0000
6.4200 180.0000 1.0000
6.4400 176.0000 1.0000
6.4600 179.0000 1.0000
6.4800 192.0000 1.0000
6.5000 168.0000 1.0000
6.5200 169.0000 1.0000
6.5400 204.0000 1.0000
6.5600 195.0000 1.0000
6.5800 173.0000 1.0000
6.6000 226.0000 1.0000
6.6200 197.0000 1.0000
6.6400 197.0000 1.0000
6.6600 202.0000 1.0000
6.6800 198.0000 1.0000
6.7000 194.0000 1.0000
6.7200 218.0000 1.0000
6.7400 205.0000 1.0000
6.7600 189.0000 1.0000
6.7800 184.0000 1.0000
6.8000 193.0000 1.0000
6.8200 194.0000 1.0000
6.8400 173.0000 1.0000
6.8600 167.0000 1.0000
6.8800 185.0000 1.0000
6.9000 169.0000 1.0000
6.9200 183.0000 1.0000
6.9400 181.0000 1.0000
6.9600 165.0000 1.0000
6.9800 176.0000 1.0000
7.0000 177.0000 1.0000
7.0200 210.0000 1.0000
7.0400 158.0000 1.0000
7.0600 183.0000 1.0000
7.0800 191.0000 1.0000
7.1000 201.0000 1.0000
7.1200 187.0000 1.0000
7.1400 188.0000 1.0000
7.1600 175.0000 1.0000
7.1800 186.0000 1.0000
7.2000 170.0000 1.0000
7.2200 158.0000 1.0000
7.2400 155.0000 1.0000
7.2600 172.0000 1.0000
7.2800 199.0000 1.0000
7.3000 182.0000 1.0000
7.3200 181.0000 1.0000
7.3400 173.0000 1.0000
7.3600 154.0000 1.0000
7.3800 179.0000 1.0000
7.4000 199.0000 1.0000
7.4200 184.0000 1.0000
7.4400 186.0000 1.0000
7.4600 176.0000 1.0000
7.4800 174.0000 1.0000
7.5000 182.0000 1.0000
7.5200 188.0000 1.0000
7.5400 183.0000 1.0000
7.5600 182.0000 1.0000
7.5800 179.0000 1.0000
7.6000 187.0000 1.0000
7.6200 172.0000 1.0000
7.6400 170.0000 1.0000
7.6600 194.0000 1.0000
7.6800 172.0000 1.0000
7.7000 168.0000 1.0000
7.7200 160.0000 1.0000
7.7400 171.0000 1.0000
7.7600 178.0000 1.0000
7.7800 187.0000 1.0000
7.8000 164.0000 1.0000
7.8200 161.0000 1.0000
7.8400 187.0000 1.0000
7.8600 157.0000 1.0000
7.8800 155.0000 1.0000
7.9000 157.0000 1.0000
7.9200 162.0000 1.0000
7.9400 154.0000 1.0000
7.9600 158.0000 1.0000
7.9800 186.0000 1.0000
8.0000 184.0000 1.0000
8.0200 159.0000 1.0000
8.0400 166.0000 1.0000
8.0600 174.0000 1.0000
8.0800 171.0000 1.0000
8.1000 162.0000 1.0000
8.1200 159.0000 1.0000
8.1400 194.0000 1.0000
8.1600 162.0000 1.0000
8.1800 170.0000 1.0000
8.2000 168.0000 1.0000
8.2200 158.0000 1.0000
8.2400 154.0000 1.0000
8.2600 167.0000 1.0000
8.2800 178.0000 1.0000
8.3000 162.0000 1.0000
8.3200 182.0000 1.0000
8.3400 170.0000 1.0000
8.3600 166.0000 1.0000
8.3800 146.0000 1.0000
8.4000 187.0000 1.0000
8.4200 158.0000 1.0000
8.4400 163.0000 1.0000
8.4600 189.0000 1.0000
8.4800 165.0000 1.0000
8.5000 143.0000 1.0000
8.5200 186.0000 1.0000
8.5400 173.0000 1.0000
8.5600 160.0000 1.0000
8.5800 163.0000 1.0000
8.6000 192.0000 1.0000
8.6200 176.0000 1.0000
8.6400 164.0000 1.0000
8.6600 146.0000 1.0000
8.6800 157.0000 1.0000
8.7000 186.0000 1.0000
8.7200 141.0000 1.0000
8.7400 159.0000 1.0000
8.7600 166.0000 1.0000
8.7800 154.0000 1.0000
8.8000 156.0000 1.0000
8.8200 164.0000 1.0000
8.8400 162.0000 1.0000
8.8600 184.0000 1.0000
8.8800 176.0000 1.0000
8.9000 145.0000 1.0000
8.9200 164.0000 1.0000
8.9400 156.0000 1.0000
8.9600 176.0000 1.0000
8.9800 156.0000 1.0000
9.0000 159.0000 1.0000
9.0200 156.0000 1.0000
9.0400 166.0000 1.0000
9.0600 156.0000 1.0000
9.0800 135.0000 1.0000
9.1000 148.0000 1.0000
9.1200 155.0000 1.0000
9.1400 148.0000 1.0000
9.1600 149.0000 1.0000
9.1800 137.0000 1.0000
9.2000 154.0000 1.0000
9.2200 162.0000 1.0000
9.2400 177.0000 1.0000
9.2600 140.0000 1.0000
9.2800 157.0000 1.0000
9.3000 138.0000 1.0000
9.3200 150.0000 1.0000
9.3400 168.0000 1.0000
9.3600 154.0000 1.0000
9.3800 122.0000 1.0000
9.4000 156.0000 1.0000
9.4200 142.0000 1.0000
9.4400 168.0000 1.0000
9.4600 155.0000 1.0000
9.4800 140.0000 1.0000
9.5000 163.0000 1.0000
9.5200 148.0000 1.0000
9.5400 178.0000 1.0000
9.5600 168.0000 1.0000
9.5800 152.0000 1.0000
9.6000 152.0000 1.0000
9.6200 154.0000 1.0000
9.6400 139.0000 1.0000
9.6600 172.0000 1.0000
9.6800 161.0000 1.0000
9.7000 154.0000 1.0000
9.7200 140.0000 1.0000
9.7400 142.0000 1.0000
9.7600 141.0000 1.0000
9.7800 178.0000 1.0000
9.8000 167.0000 1.0000
9.8200 168.0000 1.0000
9.8400 174.0000 1.0000
9.8600 149.0000 1.0000
9.8800 174.0000 1.0000
9.9000 138.0000 1.0000
9.9200 148.0000 1.0000
9.9400 164.0000 1.0000
9.9600 173.0000 1.0000
9.9800 157.0000 1.0000
10.0000 151.0000 1.0000
10.0200 128.0000 1.0000
10.0400 157.0000 1.0000
10.0600 126.0000 1.0000
10.0800 142.0000 1.0000
10.1000 137.0000 1.0000
10.1200 162.0000 1.0000
10.1400 134.0000 1.0000
10.1600 163.0000 1.0000
10.1800 156.0000 1.0000
10.2000 146.0000 1.0000
10.2200 140.0000 1.0000
10.2400 140.0000 1.0000
10.2600 146.0000 1.0000
10.2800 144.0000 1.0000
10.3000 147.0000 1.0000
10.3200 144.0000 1.0000
10.3400 151.0000 1.0000
10.3600 159.0000 1.0000
10.3800 139.0000 1.0000
10.4000 165.0000 1.0000
10.4200 170.0000 1.0000
10.4400 150.0000 1.0000
10.4600 139.0000 1.0000
10.4800 121.0000 1.0000
10.5000 154.0000 1.0000
10.5200 146.0000 1.0000
10.5400 133.0000 1.0000
10.5600 124.0000 1.0000
10.5800 144.0000 1.0000
10.6000 132.0000 1.0000
10.6200 137.0000 1.0000
10.6400 149.0000 1.0000
10.6600 161.0000 1.0000
10.6800 175.0000 1.0000
10.7000 147.0000 1.0000
10.7200 141.0000 1.0000
10.7400 138.0000 1.0000
10.7600 147.0000 1.0000
10.7800 151.0000 1.0000
10.8000 149.0000 1.0000
10.8200 119.0000 1.0000
10.8400 155.0000 1.0000
10.8600 129.0000 1.0000
10.8800 140.0000 1.0000
10.9000 129.0000 1.0000
10.9200 143.0000 1.0000
10.9400 144.0000 1.0000
10.9600 128.0000 1.0000
10.9800 148.0000 1.0000
11.0000 139.0000 1.0000
11.0200 159.0000 1.0000
11.0400 132.0000 1.0000
11.0600 138.0000 1.0000
11.0800 142.0000 1.0000
11.1000 159.0000 1.0000
11.1200 143.0000 1.0000
11.1400 156.0000 1.0000
11.1600 143.0000 1.0000
11.1800 142.0000 1.0000
11.2000 157.0000 1.0000
11.2200 121.0000 1.0000
11.2400 152.0000 1.0000
11.2600 116.0000 1.0000
11.2800 129.0000 1.0000
11.3000 138.0000 1.0000
11.3200 137.0000 1.0000
11.3400 131.0000 1.0000
11.3600 125.0000 1.0000
11.3800 134.0000 1.0000
11.4000 149.0000 1.0000
11.4200 128.0000 1.0000
11.4400 125.0000 1.0000
11.4600 139.0000 1.0000
11.4800 114.0000 1.0000
11.5000 133.0000 1.0000
11.5200 147.0000 1.0000
11.5400 139.0000 1.0000
11.5600 136.0000 1.0000
11.5800 159.0000 1.0000
11.6000 127.0000 1.0000
11.6200 149.0000 1.0000
11.6400 131.0000 1.0000
11.6600 128.0000 1.0000
11.6800 130.0000 1.0000
11.7000 133.0000 1.0000
11.7200 135.0000 1.0000
11.7400 118.0000 1.0000
11.7600 138.0000 1.0000
11.7800 133.0000 1.0000
11.8000 139.0000 1.0000
11.8200 134.0000 1.0000
11.8400 130.0000 1.0000
11.8600 131.0000 1.0000
11.8800 128.0000 1.0000
11.9000 140.0000 1.0000
11.9200 133.0000 1.0000
11.9400 134.0000 1.0000
11.9600 130.0000 1.0000
11.9800 143.0000 1.0000
12.0000 121.0000 1.0000
12.0200 127.0000 1.0000
12.0400 117.0000 1.0000
12.0600 115.0000 1.0000
12.0800 133.0000 1.0000
12.1000 124.0000 1.0000
12.1200 132.0000 1.0000
12.1400 144.0000 1.0000
12.1600 116.0000 1.0000
12.1800 151.0000 1.0000
12.2000 139.0000 1.0000
12.2200 129.0000 1.0000
12.2400 120.0000 1.0000
12.2600 111.0000 1.0000
12.2800 109.0000 1.0000
12.3000 148.0000 1.0000
12.3200 140.0000 1.0000
12.3400 130.0000 1.0000
